70BCSV 	
// AQ6370D OPTICAL SPECTRUM ANALYZER //                 
30
"CTRWL",1350.000000
"SPAN", 700.000000
"START WL",1000.000000
"STOP WL",1700.000000
"WLFREQ", 0
"REFL",-30.0
"LSCL",10.0
"RESLN",1.000
"AVG",   1
"SMPLAUTO",      1
"SMPL",       3501
"SMPLINTVL",0.2000
"NORMAL"
"MEAS"
"LSUNT",0
"NMSKH","OFF"
"RESCOR",0
"SMOOTH",0
"FIBERTYPE",0
"MEASWL",1
"SWPSPD",0
"NEBWCAL0",    0
"NEBWCAL1",    0
"NEBWCALWL",   0
"RESPARM",10013
"FREQPARM",10013




"[TRACE DATA]"
1000.0000, -56.438
1000.2000, -56.416
1000.4000, -56.621
1000.6000, -56.813
1000.8000, -56.905
1001.0000, -56.828
1001.2000, -56.684
1001.4000, -56.913
1001.6000, -57.003
1001.8000, -56.995
1002.0000, -56.865
1002.2000, -56.462
1002.4000, -56.103
1002.6000, -55.665
1002.8000, -55.517
1003.0000, -55.786
1003.2000, -55.833
1003.4000, -55.862
1003.6000, -56.074
1003.8000, -55.976
1004.0000, -56.107
1004.2000, -56.460
1004.4000, -56.572
1004.6000, -56.711
1004.8000, -56.533
1005.0000, -56.300
1005.2000, -56.317
1005.4000, -55.953
1005.6000, -55.829
1005.8000, -56.515
1006.0000, -56.233
1006.2000, -56.316
1006.4000, -56.441
1006.6000, -55.849
1006.8000, -56.163
1007.0000, -56.192
1007.2000, -56.032
1007.4000, -56.033
1007.6000, -56.055
1007.8000, -55.492
1008.0000, -55.565
1008.2000, -55.217
1008.4000, -55.060
1008.6000, -55.596
1008.8000, -55.506
1009.0000, -55.734
1009.2000, -55.861
1009.4000, -55.709
1009.6000, -55.967
1009.8000, -56.464
1010.0000, -56.098
1010.2000, -56.581
1010.4000, -56.671
1010.6000, -56.008
1010.8000, -55.832
1011.0000, -55.756
1011.2000, -55.663
1011.4000, -55.959
1011.6000, -56.189
1011.8000, -55.679
1012.0000, -56.151
1012.2000, -56.327
1012.4000, -56.332
1012.6000, -57.179
1012.8000, -57.453
1013.0000, -57.326
1013.2000, -57.978
1013.4000, -58.117
1013.6000, -57.309
1013.8000, -57.536
1014.0000, -57.545
1014.2000, -57.641
1014.4000, -57.937
1014.6000, -57.966
1014.8000, -57.039
1015.0000, -57.463
1015.2000, -57.687
1015.4000, -57.117
1015.6000, -57.580
1015.8000, -58.179
1016.0000, -57.075
1016.2000, -57.373
1016.4000, -57.467
1016.6000, -57.014
1016.8000, -57.000
1017.0000, -57.363
1017.2000, -56.726
1017.4000, -56.348
1017.6000, -56.638
1017.8000, -56.233
1018.0000, -56.167
1018.2000, -56.790
1018.4000, -57.082
1018.6000, -56.395
1018.8000, -56.863
1019.0000, -56.972
1019.2000, -56.218
1019.4000, -56.478
1019.6000, -56.696
1019.8000, -56.271
1020.0000, -55.656
1020.2000, -55.485
1020.4000, -55.457
1020.6000, -55.062
1020.8000, -55.152
1021.0000, -55.268
1021.2000, -54.783
1021.4000, -54.589
1021.6000, -55.010
1021.8000, -55.160
1022.0000, -55.217
1022.2000, -55.750
1022.4000, -56.251
1022.6000, -55.745
1022.8000, -56.193
1023.0000, -56.429
1023.2000, -56.347
1023.4000, -56.053
1023.6000, -55.933
1023.8000, -56.218
1024.0000, -55.471
1024.2000, -54.730
1024.4000, -54.602
1024.6000, -54.761
1024.8000, -54.743
1025.0000, -54.573
1025.2000, -54.496
1025.4000, -54.468
1025.6000, -54.330
1025.8000, -54.484
1026.0000, -54.811
1026.2000, -54.927
1026.4000, -54.950
1026.6000, -54.816
1026.8000, -54.760
1027.0000, -54.601
1027.2000, -55.408
1027.4000, -55.582
1027.6000, -55.441
1027.8000, -55.375
1028.0000, -55.533
1028.2000, -55.736
1028.4000, -55.592
1028.6000, -55.946
1028.8000, -55.759
1029.0000, -55.538
1029.2000, -54.969
1029.4000, -54.830
1029.6000, -54.516
1029.8000, -54.456
1030.0000, -54.657
1030.2000, -54.414
1030.4000, -54.194
1030.6000, -53.963
1030.8000, -53.972
1031.0000, -54.207
1031.2000, -54.185
1031.4000, -54.385
1031.6000, -54.727
1031.8000, -54.707
1032.0000, -54.258
1032.2000, -54.357
1032.4000, -54.584
1032.6000, -54.902
1032.8000, -54.706
1033.0000, -54.423
1033.2000, -54.429
1033.4000, -54.386
1033.6000, -54.459
1033.8000, -54.515
1034.0000, -54.279
1034.2000, -54.104
1034.4000, -53.895
1034.6000, -53.852
1034.8000, -53.720
1035.0000, -53.637
1035.2000, -53.593
1035.4000, -53.681
1035.6000, -53.578
1035.8000, -53.303
1036.0000, -52.890
1036.2000, -52.824
1036.4000, -53.005
1036.6000, -53.057
1036.8000, -52.733
1037.0000, -52.309
1037.2000, -52.176
1037.4000, -52.358
1037.6000, -52.484
1037.8000, -52.215
1038.0000, -51.682
1038.2000, -51.485
1038.4000, -51.699
1038.6000, -51.939
1038.8000, -51.750
1039.0000, -51.315
1039.2000, -50.998
1039.4000, -51.044
1039.6000, -51.470
1039.8000, -51.531
1040.0000, -51.072
1040.2000, -50.537
1040.4000, -50.507
1040.6000, -51.040
1040.8000, -51.170
1041.0000, -50.823
1041.2000, -50.398
1041.4000, -50.690
1041.6000, -51.348
1041.8000, -51.421
1042.0000, -50.782
1042.2000, -50.294
1042.4000, -50.617
1042.6000, -51.376
1042.8000, -51.420
1043.0000, -50.518
1043.2000, -49.894
1043.4000, -50.166
1043.6000, -50.951
1043.8000, -51.161
1044.0000, -50.391
1044.2000, -49.828
1044.4000, -50.000
1044.6000, -50.679
1044.8000, -51.137
1045.0000, -50.666
1045.2000, -50.082
1045.4000, -50.013
1045.6000, -50.536
1045.8000, -50.888
1046.0000, -50.686
1046.2000, -50.137
1046.4000, -49.967
1046.6000, -50.195
1046.8000, -50.732
1047.0000, -50.587
1047.2000, -50.046
1047.4000, -49.825
1047.6000, -50.012
1047.8000, -50.407
1048.0000, -50.718
1048.2000, -50.420
1048.4000, -50.127
1048.6000, -50.254
1048.8000, -50.475
1049.0000, -50.613
1049.2000, -50.460
1049.4000, -50.329
1049.6000, -50.174
1049.8000, -50.253
1050.0000, -50.330
1050.2000, -50.323
1050.4000, -50.222
1050.6000, -50.329
1050.8000, -50.566
1051.0000, -50.639
1051.2000, -50.451
1051.4000, -50.128
1051.6000, -49.940
1051.8000, -50.008
1052.0000, -50.147
1052.2000, -50.018
1052.4000, -49.531
1052.6000, -48.929
1052.8000, -48.630
1053.0000, -48.586
1053.2000, -48.656
1053.4000, -48.544
1053.6000, -48.248
1053.8000, -47.965
1054.0000, -47.776
1054.2000, -47.768
1054.4000, -47.848
1054.6000, -47.903
1054.8000, -47.784
1055.0000, -47.541
1055.2000, -47.377
1055.4000, -47.321
1055.6000, -47.409
1055.8000, -47.445
1056.0000, -47.374
1056.2000, -47.151
1056.4000, -46.954
1056.6000, -46.862
1056.8000, -46.916
1057.0000, -47.004
1057.2000, -47.036
1057.4000, -46.926
1057.6000, -46.699
1057.8000, -46.353
1058.0000, -46.037
1058.2000, -45.862
1058.4000, -45.793
1058.6000, -45.727
1058.8000, -45.617
1059.0000, -45.355
1059.2000, -45.063
1059.4000, -44.811
1059.6000, -44.651
1059.8000, -44.653
1060.0000, -44.747
1060.2000, -44.870
1060.4000, -44.932
1060.6000, -44.844
1060.8000, -44.596
1061.0000, -44.273
1061.2000, -43.869
1061.4000, -43.528
1061.6000, -43.285
1061.8000, -43.143
1062.0000, -43.050
1062.2000, -42.933
1062.4000, -42.619
1062.6000, -42.034
1062.8000, -40.191
1063.0000, -38.276
1063.2000, -38.077
1063.4000, -37.974
1063.6000, -37.911
1063.8000, -37.848
1064.0000, -37.793
1064.2000, -37.852
1064.4000, -39.154
1064.6000, -38.876
1064.8000, -38.561
1065.0000, -38.575
1065.2000, -38.902
1065.4000, -39.444
1065.6000, -40.138
1065.8000, -41.239
1066.0000, -42.553
1066.2000, -43.774
1066.4000, -44.416
1066.6000, -44.523
1066.8000, -44.363
1067.0000, -44.270
1067.2000, -44.272
1067.4000, -44.470
1067.6000, -44.812
1067.8000, -45.216
1068.0000, -45.485
1068.2000, -45.421
1068.4000, -45.193
1068.6000, -44.928
1068.8000, -44.824
1069.0000, -44.848
1069.2000, -45.025
1069.4000, -45.383
1069.6000, -45.919
1069.8000, -46.603
1070.0000, -47.107
1070.2000, -47.302
1070.4000, -47.049
1070.6000, -46.493
1070.8000, -45.855
1071.0000, -45.254
1071.2000, -44.840
1071.4000, -44.628
1071.6000, -44.704
1071.8000, -45.047
1072.0000, -45.685
1072.2000, -46.500
1072.4000, -47.438
1072.6000, -48.177
1072.8000, -48.277
1073.0000, -47.814
1073.2000, -47.047
1073.4000, -46.247
1073.6000, -45.709
1073.8000, -45.413
1074.0000, -45.335
1074.2000, -45.560
1074.4000, -46.084
1074.6000, -46.916
1074.8000, -47.995
1075.0000, -49.204
1075.2000, -50.423
1075.4000, -51.527
1075.6000, -52.272
1075.8000, -52.487
1076.0000, -51.940
1076.2000, -50.896
1076.4000, -49.538
1076.6000, -48.249
1076.8000, -47.259
1077.0000, -46.594
1077.2000, -46.209
1077.4000, -46.085
1077.6000, -46.156
1077.8000, -46.429
1078.0000, -46.967
1078.2000, -47.783
1078.4000, -48.806
1078.6000, -49.991
1078.8000, -51.140
1079.0000, -52.288
1079.2000, -53.120
1079.4000, -53.514
1079.6000, -53.596
1079.8000, -53.028
1080.0000, -52.281
1080.2000, -51.357
1080.4000, -50.265
1080.6000, -49.351
1080.8000, -48.617
1081.0000, -48.141
1081.2000, -47.737
1081.4000, -47.397
1081.6000, -47.143
1081.8000, -47.016
1082.0000, -47.093
1082.2000, -47.333
1082.4000, -47.655
1082.6000, -48.041
1082.8000, -48.467
1083.0000, -48.945
1083.2000, -49.361
1083.4000, -49.726
1083.6000, -50.136
1083.8000, -50.502
1084.0000, -50.869
1084.2000, -51.245
1084.4000, -51.699
1084.6000, -52.421
1084.8000, -53.198
1085.0000, -53.874
1085.2000, -54.011
1085.4000, -53.839
1085.6000, -53.156
1085.8000, -52.508
1086.0000, -51.907
1086.2000, -51.381
1086.4000, -51.181
1086.6000, -50.965
1086.8000, -50.853
1087.0000, -50.884
1087.2000, -50.946
1087.4000, -51.115
1087.6000, -51.338
1087.8000, -51.441
1088.0000, -51.450
1088.2000, -51.334
1088.4000, -50.981
1088.6000, -50.576
1088.8000, -50.196
1089.0000, -49.841
1089.2000, -49.483
1089.4000, -49.175
1089.6000, -48.889
1089.8000, -48.748
1090.0000, -48.659
1090.2000, -48.714
1090.4000, -48.767
1090.6000, -48.799
1090.8000, -48.740
1091.0000, -48.612
1091.2000, -48.370
1091.4000, -48.126
1091.6000, -47.821
1091.8000, -47.436
1092.0000, -47.054
1092.2000, -46.697
1092.4000, -46.389
1092.6000, -46.207
1092.8000, -46.130
1093.0000, -46.223
1093.2000, -46.447
1093.4000, -46.791
1093.6000, -47.251
1093.8000, -47.878
1094.0000, -48.625
1094.2000, -49.335
1094.4000, -49.954
1094.6000, -50.539
1094.8000, -51.107
1095.0000, -51.568
1095.2000, -52.005
1095.4000, -52.665
1095.6000, -53.303
1095.8000, -54.057
1096.0000, -54.603
1096.2000, -54.746
1096.4000, -54.251
1096.6000, -52.904
1096.8000, -51.498
1097.0000, -50.122
1097.2000, -48.928
1097.4000, -48.040
1097.6000, -47.337
1097.8000, -46.735
1098.0000, -46.328
1098.2000, -46.100
1098.4000, -46.031
1098.6000, -45.998
1098.8000, -46.043
1099.0000, -46.132
1099.2000, -46.345
1099.4000, -46.645
1099.6000, -47.040
1099.8000, -47.523
1100.0000, -48.139
1100.2000, -48.842
1100.4000, -49.573
1100.6000, -50.480
1100.8000, -51.405
1101.0000, -52.410
1101.2000, -53.126
1101.4000, -53.093
1101.6000, -52.443
1101.8000, -51.359
1102.0000, -50.117
1102.2000, -48.937
1102.4000, -47.926
1102.6000, -47.083
1102.8000, -46.504
1103.0000, -46.139
1103.2000, -46.056
1103.4000, -46.273
1103.6000, -46.675
1103.8000, -47.260
1104.0000, -47.978
1104.2000, -48.785
1104.4000, -49.546
1104.6000, -50.114
1104.8000, -50.212
1105.0000, -49.931
1105.2000, -49.420
1105.4000, -48.826
1105.6000, -48.380
1105.8000, -48.031
1106.0000, -47.845
1106.2000, -47.837
1106.4000, -48.004
1106.6000, -48.328
1106.8000, -48.839
1107.0000, -49.453
1107.2000, -50.139
1107.4000, -50.703
1107.6000, -50.963
1107.8000, -50.739
1108.0000, -50.227
1108.2000, -49.655
1108.4000, -49.128
1108.6000, -48.712
1108.8000, -48.397
1109.0000, -48.267
1109.2000, -48.339
1109.4000, -48.623
1109.6000, -48.984
1109.8000, -49.281
1110.0000, -49.331
1110.2000, -49.232
1110.4000, -49.068
1110.6000, -48.827
1110.8000, -48.656
1111.0000, -48.536
1111.2000, -48.487
1111.4000, -48.594
1111.6000, -48.813
1111.8000, -49.090
1112.0000, -49.315
1112.2000, -49.474
1112.4000, -49.634
1112.6000, -49.744
1112.8000, -49.720
1113.0000, -49.668
1113.2000, -49.680
1113.4000, -49.850
1113.6000, -49.928
1113.8000, -49.834
1114.0000, -49.743
1114.2000, -49.751
1114.4000, -49.848
1114.6000, -49.999
1114.8000, -50.010
1115.0000, -50.056
1115.2000, -50.064
1115.4000, -50.166
1115.6000, -50.262
1115.8000, -50.319
1116.0000, -50.344
1116.2000, -50.450
1116.4000, -50.630
1116.6000, -50.806
1116.8000, -50.889
1117.0000, -50.919
1117.2000, -50.896
1117.4000, -50.720
1117.6000, -50.691
1117.8000, -50.692
1118.0000, -50.776
1118.2000, -50.764
1118.4000, -50.754
1118.6000, -50.734
1118.8000, -50.695
1119.0000, -50.641
1119.2000, -50.600
1119.4000, -50.411
1119.6000, -50.195
1119.8000, -49.968
1120.0000, -49.830
1120.2000, -49.887
1120.4000, -50.062
1120.6000, -50.151
1120.8000, -50.155
1121.0000, -50.184
1121.2000, -50.175
1121.4000, -50.345
1121.6000, -50.524
1121.8000, -50.664
1122.0000, -50.641
1122.2000, -50.566
1122.4000, -50.510
1122.6000, -50.477
1122.8000, -50.659
1123.0000, -50.907
1123.2000, -51.000
1123.4000, -50.951
1123.6000, -50.707
1123.8000, -50.452
1124.0000, -50.418
1124.2000, -50.433
1124.4000, -50.443
1124.6000, -50.472
1124.8000, -50.644
1125.0000, -50.960
1125.2000, -51.340
1125.4000, -51.586
1125.6000, -51.777
1125.8000, -51.677
1126.0000, -51.509
1126.2000, -51.494
1126.4000, -51.651
1126.6000, -51.932
1126.8000, -52.276
1127.0000, -52.419
1127.2000, -52.519
1127.4000, -52.422
1127.6000, -52.426
1127.8000, -52.389
1128.0000, -52.520
1128.2000, -52.434
1128.4000, -52.094
1128.6000, -51.571
1128.8000, -51.286
1129.0000, -51.245
1129.2000, -51.310
1129.4000, -51.381
1129.6000, -51.312
1129.8000, -51.211
1130.0000, -51.217
1130.2000, -51.143
1130.4000, -50.830
1130.6000, -50.438
1130.8000, -50.088
1131.0000, -49.894
1131.2000, -49.997
1131.4000, -50.220
1131.6000, -50.588
1131.8000, -50.738
1132.0000, -50.893
1132.2000, -51.046
1132.4000, -51.129
1132.6000, -51.083
1132.8000, -50.961
1133.0000, -50.816
1133.2000, -50.872
1133.4000, -51.214
1133.6000, -51.639
1133.8000, -51.787
1134.0000, -51.808
1134.2000, -51.967
1134.4000, -52.119
1134.6000, -52.263
1134.8000, -51.952
1135.0000, -51.389
1135.2000, -50.925
1135.4000, -50.686
1135.6000, -50.641
1135.8000, -50.568
1136.0000, -50.658
1136.2000, -50.999
1136.4000, -51.581
1136.6000, -52.002
1136.8000, -51.952
1137.0000, -51.657
1137.2000, -51.423
1137.4000, -51.273
1137.6000, -50.989
1137.8000, -50.554
1138.0000, -50.277
1138.2000, -50.169
1138.4000, -50.173
1138.6000, -50.174
1138.8000, -50.179
1139.0000, -50.401
1139.2000, -50.576
1139.4000, -50.565
1139.6000, -50.373
1139.8000, -50.352
1140.0000, -50.469
1140.2000, -50.640
1140.4000, -50.616
1140.6000, -50.672
1140.8000, -50.950
1141.0000, -51.305
1141.2000, -51.523
1141.4000, -51.428
1141.6000, -51.383
1141.8000, -51.327
1142.0000, -51.049
1142.2000, -50.756
1142.4000, -50.700
1142.6000, -50.836
1142.8000, -50.919
1143.0000, -50.958
1143.2000, -51.169
1143.4000, -51.473
1143.6000, -51.757
1143.8000, -51.713
1144.0000, -51.591
1144.2000, -51.567
1144.4000, -51.472
1144.6000, -51.104
1144.8000, -50.964
1145.0000, -51.111
1145.2000, -51.484
1145.4000, -51.642
1145.6000, -51.863
1145.8000, -52.218
1146.0000, -52.771
1146.2000, -52.884
1146.4000, -52.875
1146.6000, -52.907
1146.8000, -52.746
1147.0000, -52.289
1147.2000, -52.000
1147.4000, -51.989
1147.6000, -51.963
1147.8000, -51.766
1148.0000, -51.668
1148.2000, -51.847
1148.4000, -52.176
1148.6000, -52.331
1148.8000, -52.127
1149.0000, -51.992
1149.2000, -52.057
1149.4000, -52.042
1149.6000, -51.923
1149.8000, -51.849
1150.0000, -51.729
1150.2000, -51.830
1150.4000, -51.972
1150.6000, -52.212
1150.8000, -52.487
1151.0000, -52.762
1151.2000, -53.102
1151.4000, -53.391
1151.6000, -53.325
1151.8000, -53.154
1152.0000, -53.009
1152.2000, -52.679
1152.4000, -52.254
1152.6000, -51.920
1152.8000, -51.813
1153.0000, -51.991
1153.2000, -52.367
1153.4000, -52.657
1153.6000, -53.096
1153.8000, -53.481
1154.0000, -53.789
1154.2000, -53.614
1154.4000, -53.281
1154.6000, -52.987
1154.8000, -52.737
1155.0000, -52.564
1155.2000, -52.484
1155.4000, -52.501
1155.6000, -52.678
1155.8000, -53.057
1156.0000, -53.341
1156.2000, -53.632
1156.4000, -53.968
1156.6000, -54.285
1156.8000, -54.454
1157.0000, -54.701
1157.2000, -54.757
1157.4000, -54.552
1157.6000, -54.297
1157.8000, -53.833
1158.0000, -53.671
1158.2000, -53.583
1158.4000, -53.701
1158.6000, -53.869
1158.8000, -54.137
1159.0000, -54.427
1159.2000, -54.653
1159.4000, -54.747
1159.6000, -54.636
1159.8000, -54.463
1160.0000, -54.318
1160.2000, -54.038
1160.4000, -53.924
1160.6000, -53.964
1160.8000, -54.094
1161.0000, -54.198
1161.2000, -54.194
1161.4000, -54.107
1161.6000, -54.119
1161.8000, -54.259
1162.0000, -54.503
1162.2000, -54.727
1162.4000, -54.676
1162.6000, -54.530
1162.8000, -54.353
1163.0000, -54.188
1163.2000, -54.097
1163.4000, -54.077
1163.6000, -54.143
1163.8000, -54.240
1164.0000, -54.309
1164.2000, -54.299
1164.4000, -54.199
1164.6000, -53.861
1164.8000, -53.693
1165.0000, -53.792
1165.2000, -53.953
1165.4000, -54.102
1165.6000, -54.207
1165.8000, -54.363
1166.0000, -54.575
1166.2000, -54.614
1166.4000, -54.719
1166.6000, -54.743
1166.8000, -54.727
1167.0000, -54.505
1167.2000, -54.071
1167.4000, -53.855
1167.6000, -53.448
1167.8000, -53.100
1168.0000, -52.853
1168.2000, -52.692
1168.4000, -52.664
1168.6000, -52.734
1168.8000, -52.816
1169.0000, -52.747
1169.2000, -52.738
1169.4000, -52.905
1169.6000, -53.140
1169.8000, -53.366
1170.0000, -53.287
1170.2000, -53.162
1170.4000, -53.077
1170.6000, -53.019
1170.8000, -52.982
1171.0000, -52.884
1171.2000, -52.681
1171.4000, -52.748
1171.6000, -52.902
1171.8000, -53.242
1172.0000, -53.296
1172.2000, -53.285
1172.4000, -53.267
1172.6000, -53.463
1172.8000, -53.427
1173.0000, -53.281
1173.2000, -52.897
1173.4000, -52.559
1173.6000, -52.467
1173.8000, -52.421
1174.0000, -52.581
1174.2000, -52.535
1174.4000, -52.596
1174.6000, -52.655
1174.8000, -52.833
1175.0000, -53.078
1175.2000, -53.392
1175.4000, -53.422
1175.6000, -53.423
1175.8000, -53.650
1176.0000, -53.745
1176.2000, -53.597
1176.4000, -53.290
1176.6000, -52.976
1176.8000, -52.737
1177.0000, -52.454
1177.2000, -52.142
1177.4000, -51.765
1177.6000, -51.609
1177.8000, -51.644
1178.0000, -51.670
1178.2000, -51.648
1178.4000, -51.648
1178.6000, -51.860
1178.8000, -52.208
1179.0000, -52.601
1179.2000, -52.771
1179.4000, -52.699
1179.6000, -52.622
1179.8000, -52.686
1180.0000, -52.814
1180.2000, -52.580
1180.4000, -52.097
1180.6000, -51.755
1180.8000, -51.584
1181.0000, -51.616
1181.2000, -51.537
1181.4000, -51.331
1181.6000, -51.175
1181.8000, -51.116
1182.0000, -51.345
1182.2000, -51.581
1182.4000, -51.665
1182.6000, -51.620
1182.8000, -51.623
1183.0000, -51.640
1183.2000, -51.614
1183.4000, -51.583
1183.6000, -51.589
1183.8000, -51.512
1184.0000, -51.335
1184.2000, -51.135
1184.4000, -51.226
1184.6000, -51.359
1184.8000, -51.461
1185.0000, -51.390
1185.2000, -51.242
1185.4000, -51.260
1185.6000, -51.541
1185.8000, -51.702
1186.0000, -51.629
1186.2000, -51.353
1186.4000, -51.381
1186.6000, -51.679
1186.8000, -52.024
1187.0000, -51.987
1187.2000, -51.697
1187.4000, -51.609
1187.6000, -51.822
1187.8000, -52.066
1188.0000, -51.966
1188.2000, -51.744
1188.4000, -51.673
1188.6000, -51.827
1188.8000, -52.072
1189.0000, -52.113
1189.2000, -52.061
1189.4000, -52.081
1189.6000, -52.351
1189.8000, -52.567
1190.0000, -52.571
1190.2000, -52.478
1190.4000, -52.376
1190.6000, -52.361
1190.8000, -52.437
1191.0000, -52.257
1191.2000, -52.078
1191.4000, -51.842
1191.6000, -51.750
1191.8000, -51.671
1192.0000, -51.615
1192.2000, -51.519
1192.4000, -51.472
1192.6000, -51.481
1192.8000, -51.579
1193.0000, -51.701
1193.2000, -51.836
1193.4000, -51.876
1193.6000, -52.017
1193.8000, -52.371
1194.0000, -52.709
1194.2000, -52.847
1194.4000, -52.812
1194.6000, -52.904
1194.8000, -53.230
1195.0000, -53.245
1195.2000, -53.111
1195.4000, -52.903
1195.6000, -52.800
1195.8000, -52.749
1196.0000, -52.495
1196.2000, -52.091
1196.4000, -51.830
1196.6000, -51.911
1196.8000, -52.139
1197.0000, -52.285
1197.2000, -52.274
1197.4000, -52.617
1197.6000, -53.167
1197.8000, -53.679
1198.0000, -53.843
1198.2000, -53.845
1198.4000, -53.909
1198.6000, -54.096
1198.8000, -53.829
1199.0000, -53.399
1199.2000, -53.183
1199.4000, -53.133
1199.6000, -52.966
1199.8000, -52.734
1200.0000, -52.651
1200.2000, -52.848
1200.4000, -53.162
1200.6000, -53.233
1200.8000, -53.249
1201.0000, -53.452
1201.2000, -53.704
1201.4000, -53.818
1201.6000, -53.793
1201.8000, -53.869
1202.0000, -54.009
1202.2000, -54.387
1202.4000, -54.596
1202.6000, -54.757
1202.8000, -54.783
1203.0000, -55.011
1203.2000, -55.060
1203.4000, -55.001
1203.6000, -54.816
1203.8000, -54.750
1204.0000, -54.340
1204.2000, -53.872
1204.4000, -53.572
1204.6000, -53.323
1204.8000, -53.197
1205.0000, -53.145
1205.2000, -53.117
